# Created by:        SpecsLab Prodigy, Version 4.50.2-r79252 
#
# XY-Serializer Export Settings:
#   Comment Prefix:           #
#   Output meta data:         yes
#   Energy Axis:              Binding Energy
#   Count Rate:               Counts per Second
#   Separate Scan Data:       no
#   Separate Channel Data:    no
#   External Channel Data:    yes
#   Transmission Function:    no
#   ErrorBar:                 no
#   Operation Results:        yes
#   Time Zone Format:         UTC
#
# Group:             Spectrum Group 25
#
# Region:            Si2p
# Acquisition Date:  10/25/19 18:26:40 UTC
# Analysis Method:   XPS
# Analyzer:          Phoibos
# Analyzer Lens:     MediumArea:1.5kV
# Analyzer Slit:     5:7x20\B:open
# Scan Mode:         FixedAnalyzerTransmission
# Curves/Scan:       1
# Values/Curve:      151
# Dwell Time:        0.1
# Excitation Energy: 1486.71
# Binding Energy:    110
# Pass Energy:       10
# Bias Voltage:      90
# Detector Voltage:  1900
# Eff. Workfunction: 4.395
# Source:            Focus
# Comment:           
#
# Cycle: 0
# Number of Scans: 12
#
# Cycle: 0, Curve: 0
# Acquisition Date: 10/25/19 18:26:40 UTC
#
# ColumnLabels: energy counts/s
#
110  126.40232
109.9  136.68951
109.8  128.38449
109.7  116.02008
109.6  116.52858
109.5  132.82723
109.4  126.98103
109.3  126.12013
109.2  116.11732
109.1  144.02903
109  131.44527
108.9  118.18305
108.8  126.02411
108.7  121.82884
108.6  124.52001
108.5  129.3844
108.4  117.78701
108.3  130.46287
108.2  135.99806
108.1  127.03897
108  116.21345
107.9  122.86092
107.8  137.36402
107.7  137.31363
107.6  141.92021
107.5  147.86968
107.4  148.82354
107.3  140.53905
107.2  162.8182
107.1  170.78262
107  161.72816
106.9  167.80188
106.8  203.47609
106.7  240.06032
106.6  284.10236
106.5  336.84109
106.4  394.48445
106.3  498.91758
106.2  617.70162
106.1  728.13238
106  925.33906
105.9  1096.1877
105.8  1297.8359
105.7  1525.3662
105.6  1789.7175
105.5  2067.5219
105.4  2355.0086
105.3  2592.7627
105.2  2742.1114
105.1  3006.5201
105  3135.8967
104.9  3217.1779
104.8  3206.1697
104.7  3158.1239
104.6  2943.5075
104.5  2771.2662
104.4  2577.28
104.3  2240.5118
104.2  1972.5458
104.1  1666.2802
104  1378.9006
103.9  1108.8388
103.8  856.69532
103.7  703.7195
103.6  553.24128
103.5  450.02392
103.4  348.87885
103.3  313.34143
103.2  287.19671
103.1  252.22173
103  231.67061
102.9  204.68538
102.8  201.52557
102.7  186.34254
102.6  188.91603
102.5  170.08562
102.4  163.74111
102.3  147.33057
102.2  135.51247
102.1  161.73751
102  144.83151
101.9  136.69438
101.8  120.05769
101.7  127.9016
101.6  145.61815
101.5  143.43122
101.4  158.78387
101.3  166.11215
101.2  155.21977
101.1  177.34578
101  235.62275
100.9  265.9074
100.8  378.1172
100.7  475.1913
100.6  665.98265
100.5  797.12465
100.4  834.58814
100.3  885.09361
100.2  867.74068
100.1  917.75799
100  1107.8742
99.9  1244.2317
99.8  1304.3852
99.7  1122.5279
99.6  775.4672
99.5  473.68413
99.4  255.53795
99.3  148.03113
99.2  120.64989
99.1  107.43599
99  89.40857
98.9  84.675055
98.8  95.648871
98.7  88.849572
98.6  84.675127
98.5  90.308008
98.4  85.361021
98.3  78.286784
98.2  95.1484
98.1  84.885447
98  66.131944
97.9  72.767215
97.8  78.353292
97.7  82.249677
97.6  71.174955
97.5  63.664353
97.4  83.297119
97.3  86.855524
97.2  77.847313
97.1  74.920797
97  74.244276
96.9  87.925108
96.8  79.863737
96.7  80.153995
96.6  77.439835
96.5  75.068596
96.4  76.836559
96.3  68.074989
96.2  65.702588
96.1  73.528633
96  88.720686
95.9  78.60147
95.8  79.831969
95.7  96.425399
95.6  90.016389
95.5  82.079353
95.4  72.840701
95.3  83.82791
95.2  77.676056
95.1  67.325433
95  74.219148

