# Created by:        SpecsLab Prodigy, Version 4.50.2-r79252 
#
# XY-Serializer Export Settings:
#   Comment Prefix:           #
#   Output meta data:         yes
#   Energy Axis:              Binding Energy
#   Count Rate:               Counts per Second
#   Separate Scan Data:       no
#   Separate Channel Data:    no
#   External Channel Data:    yes
#   Transmission Function:    no
#   ErrorBar:                 no
#   Operation Results:        yes
#   Time Zone Format:         UTC
#
# Group:             Spectrum Group 5
#
# Region:            Si2p
# Acquisition Date:  10/25/19 17:41:46 UTC
# Analysis Method:   XPS
# Analyzer:          Phoibos
# Analyzer Lens:     MediumArea:1.5kV
# Analyzer Slit:     5:7x20\B:open
# Scan Mode:         FixedAnalyzerTransmission
# Curves/Scan:       1
# Values/Curve:      151
# Dwell Time:        0.1
# Excitation Energy: 1486.71
# Binding Energy:    110
# Pass Energy:       10
# Bias Voltage:      90
# Detector Voltage:  1900
# Eff. Workfunction: 4.395
# Source:            Focus
# Comment:           
#
# Cycle: 0
# Number of Scans: 12
#
# Cycle: 0, Curve: 0
# Acquisition Date: 10/25/19 17:41:46 UTC
#
# ColumnLabels: energy counts/s
#
110  155.31103
109.9  162.73352
109.8  188.62748
109.7  163.79134
109.6  161.91351
109.5  166.66311
109.4  152.83578
109.3  155.49923
109.2  177.17932
109.1  150.96909
109  153.45977
108.9  163.18776
108.8  150.83211
108.7  166.58647
108.6  171.67696
108.5  152.54052
108.4  157.81605
108.3  139.8177
108.2  154.8256
108.1  155.91953
108  154.62111
107.9  169.46004
107.8  176.06546
107.7  178.12632
107.6  186.82829
107.5  181.77714
107.4  212.37141
107.3  202.90318
107.2  204.72432
107.1  211.94383
107  266.47425
106.9  282.33537
106.8  328.17422
106.7  387.79604
106.6  482.26125
106.5  567.97645
106.4  686.81301
106.3  843.28322
106.2  1040.3345
106.1  1291.1266
106  1522.4026
105.9  1734.9266
105.8  2064.3874
105.7  2426.6223
105.6  2850.1826
105.5  3140.6645
105.4  3484.805
105.3  3746.9066
105.2  4009.5497
105.1  4174.1173
105  4174.4135
104.9  4182.2192
104.8  4101.4002
104.7  3868.903
104.6  3653.3533
104.5  3225.4018
104.4  2893.1457
104.3  2522.3722
104.2  2048.0899
104.1  1721.8935
104  1409.2662
103.9  1160.0458
103.8  898.92573
103.7  721.4885
103.6  528.66287
103.5  471.62868
103.4  410.88346
103.3  340.14543
103.2  325.01156
103.1  315.00243
103  280.3674
102.9  244.14858
102.8  228.81141
102.7  208.68177
102.6  218.33334
102.5  210.81739
102.4  205.0935
102.3  195.33513
102.2  176.40395
102.1  172.34743
102  178.92998
101.9  175.38806
101.8  185.9528
101.7  172.03569
101.6  163.49303
101.5  165.36404
101.4  177.67239
101.3  187.11708
101.2  202.77592
101.1  235.29729
101  327.28813
100.9  410.61024
100.8  501.20908
100.7  659.03069
100.6  844.67019
100.5  946.39739
100.4  1087.8611
100.3  1062.2944
100.2  1039.5335
100.1  1110.4304
100  1330.916
99.9  1435.7469
99.8  1386.4041
99.7  1118.7632
99.6  721.3953
99.5  385.20074
99.4  221.10589
99.3  149.2749
99.2  119.58976
99.1  119.47441
99  138.14424
98.9  116.49584
98.8  104.95988
98.7  115.66124
98.6  118.46687
98.5  87.596908
98.4  90.042698
98.3  98.818594
98.2  98.693032
98.1  107.97227
98  102.17502
97.9  97.891081
97.8  111.61578
97.7  103.79328
97.6  101.42183
97.5  105.49361
97.4  98.230967
97.3  98.234809
97.2  112.64693
97.1  105.33602
97  98.419353
96.9  106.97654
96.8  113.91032
96.7  93.098373
96.6  107.53175
96.5  103.84572
96.4  88.350899
96.3  97.800811
96.2  103.45112
96.1  90.423714
96  108.65433
95.9  107.10895
95.8  98.196009
95.7  106.5148
95.6  102.64193
95.5  104.64189
95.4  99.44624
95.3  105.0335
95.2  109.4852
95.1  94.248628
95  107.04948

