# Created by:        SpecsLab Prodigy, Version 4.50.2-r79252 
#
# XY-Serializer Export Settings:
#   Comment Prefix:           #
#   Output meta data:         yes
#   Energy Axis:              Binding Energy
#   Count Rate:               Counts per Second
#   Separate Scan Data:       no
#   Separate Channel Data:    no
#   External Channel Data:    yes
#   Transmission Function:    no
#   ErrorBar:                 no
#   Operation Results:        yes
#   Time Zone Format:         UTC
#
# Group:             Spectrum Group 0
#
# Region:            Si2p
# Acquisition Date:  10/25/19 17:10:45 UTC
# Analysis Method:   XPS
# Analyzer:          Phoibos
# Analyzer Lens:     MediumArea:1.5kV
# Analyzer Slit:     5:7x20\B:open
# Scan Mode:         FixedAnalyzerTransmission
# Curves/Scan:       1
# Values/Curve:      151
# Dwell Time:        0.1
# Excitation Energy: 1486.71
# Binding Energy:    110
# Pass Energy:       10
# Bias Voltage:      90
# Detector Voltage:  1900
# Eff. Workfunction: 4.395
# Source:            Focus
# Comment:           
#
# Cycle: 0
# Number of Scans: 12
#
# Cycle: 0, Curve: 0
# Acquisition Date: 10/25/19 17:10:45 UTC
#
# ColumnLabels: energy counts/s
#
110  188.94495
109.9  177.46842
109.8  172.2697
109.7  183.70289
109.6  169.42055
109.5  174.54719
109.4  163.53309
109.3  168.34375
109.2  157.30534
109.1  181.17602
109  171.67305
108.9  171.77549
108.8  158.03125
108.7  173.96975
108.6  167.52048
108.5  170.09446
108.4  176.67205
108.3  177.74269
108.2  175.20219
108.1  178.86356
108  165.33979
107.9  177.17964
107.8  159.86611
107.7  152.04323
107.6  184.70424
107.5  173.06068
107.4  206.52071
107.3  195.16109
107.2  214.41087
107.1  248.16866
107  259.41374
106.9  288.39004
106.8  335.98841
106.7  374.78139
106.6  450.21487
106.5  528.00687
106.4  660.2295
106.3  794.66601
106.2  1015.5343
106.1  1205.31
106  1489.2562
105.9  1760.0909
105.8  2109.4041
105.7  2450.1074
105.6  2797.1135
105.5  3058.2498
105.4  3528.837
105.3  3806.975
105.2  4038.9075
105.1  4226.7238
105  4337.2053
104.9  4260.9953
104.8  4188.4999
104.7  4031.0541
104.6  3712.3077
104.5  3374.2328
104.4  3005.4377
104.3  2564.1108
104.2  2208.669
104.1  1836.7029
104  1516.7243
103.9  1192.0771
103.8  912.27091
103.7  747.2476
103.6  587.9145
103.5  517.78065
103.4  453.38245
103.3  398.46025
103.2  326.93956
103.1  316.94435
103  273.65926
102.9  243.16871
102.8  226.61924
102.7  213.13479
102.6  233.57305
102.5  218.15644
102.4  186.94008
102.3  184.11951
102.2  201.67851
102.1  195.39283
102  195.18171
101.9  196.22855
101.8  182.82864
101.7  200.55616
101.6  176.80893
101.5  181.12926
101.4  186.47476
101.3  195.26613
101.2  215.22921
101.1  250.34405
101  292.88588
100.9  406.612
100.8  517.46046
100.7  701.33841
100.6  907.14777
100.5  1106.2106
100.4  1167.4137
100.3  1122.2278
100.2  1143.6372
100.1  1280.6998
100  1486.0561
99.9  1682.3752
99.8  1654.5242
99.7  1352.6536
99.6  906.04483
99.5  531.57705
99.4  263.49803
99.3  181.30997
99.2  163.67725
99.1  142.48479
99  127.65302
98.9  133.18405
98.8  123.75579
98.7  116.26635
98.6  110.83453
98.5  113.33833
98.4  133.15641
98.3  107.19074
98.2  92.440661
98.1  114.49713
98  103.65323
97.9  107.12004
97.8  107.5879
97.7  114.94867
97.6  114.96818
97.5  106.01984
97.4  110.44976
97.3  107.41183
97.2  103.04933
97.1  117.54011
97  109.59005
96.9  96.149819
96.8  101.50217
96.7  123.65027
96.6  101.82055
96.5  109.93688
96.4  111.04239
96.3  116.02377
96.2  109.21214
96.1  107.07302
96  94.825899
95.9  120.47343
95.8  121.23817
95.7  115.76432
95.6  109.99801
95.5  115.46449
95.4  102.26994
95.3  94.654431
95.2  94.15432
95.1  107.74209
95  95.723381

