# Created by:        SpecsLab Prodigy, Version 4.50.2-r79252 
#
# XY-Serializer Export Settings:
#   Comment Prefix:           #
#   Output meta data:         yes
#   Energy Axis:              Binding Energy
#   Count Rate:               Counts per Second
#   Separate Scan Data:       no
#   Separate Channel Data:    no
#   External Channel Data:    yes
#   Transmission Function:    no
#   ErrorBar:                 no
#   Operation Results:        yes
#   Time Zone Format:         UTC
#
# Group:             Spectrum Group 55
#
# Region:            Si2p
# Acquisition Date:  10/25/19 19:53:36 UTC
# Analysis Method:   XPS
# Analyzer:          Phoibos
# Analyzer Lens:     MediumArea:1.5kV
# Analyzer Slit:     5:7x20\B:open
# Scan Mode:         FixedAnalyzerTransmission
# Curves/Scan:       1
# Values/Curve:      151
# Dwell Time:        0.1
# Excitation Energy: 1486.71
# Binding Energy:    110
# Pass Energy:       10
# Bias Voltage:      90
# Detector Voltage:  1900
# Eff. Workfunction: 4.395
# Source:            Focus
# Comment:           
#
# Cycle: 0
# Number of Scans: 12
#
# Cycle: 0, Curve: 0
# Acquisition Date: 10/25/19 19:53:36 UTC
#
# ColumnLabels: energy counts/s
#
110  78.48925
109.9  70.857731
109.8  58.304961
109.7  78.749908
109.6  70.319472
109.5  76.621752
109.4  70.967162
109.3  89.278683
109.2  80.130476
109.1  66.440144
109  61.405161
108.9  79.14505
108.8  76.130827
108.7  75.825488
108.6  68.787472
108.5  81.212858
108.4  73.966759
108.3  71.80234
108.2  78.312601
108.1  68.129144
108  73.20728
107.9  66.450617
107.8  70.728151
107.7  74.957896
107.6  77.981169
107.5  89.095028
107.4  91.863397
107.3  78.477568
107.2  81.994362
107.1  101.33221
107  92.242459
106.9  103.76066
106.8  127.82618
106.7  171.75202
106.6  189.59515
106.5  233.48982
106.4  280.16434
106.3  380.49731
106.2  426.58465
106.1  559.84534
106  669.81608
105.9  797.49342
105.8  1009.8398
105.7  1194.9719
105.6  1387.784
105.5  1608.5335
105.4  1721.3981
105.3  1935.0364
105.2  2064.5771
105.1  2140.3475
105  2154.6704
104.9  2202.1443
104.8  2029.5363
104.7  2001.9495
104.6  1913.3212
104.5  1676.4821
104.4  1500.0566
104.3  1249.3414
104.2  1068.0661
104.1  851.9438
104  677.01179
103.9  524.04357
103.8  445.93197
103.7  348.45896
103.6  305.01553
103.5  236.889
103.4  216.37733
103.3  174.33327
103.2  164.84961
103.1  146.71694
103  138.70962
102.9  123.11172
102.8  105.15367
102.7  110.96635
102.6  101.5223
102.5  96.251237
102.4  90.266477
102.3  83.401553
102.2  82.69966
102.1  75.152902
102  81.507276
101.9  66.87604
101.8  73.679388
101.7  82.892731
101.6  76.779317
101.5  89.602236
101.4  73.799413
101.3  75.109275
101.2  94.525636
101.1  95.217633
101  98.890475
100.9  113.17956
100.8  140.73211
100.7  198.66226
100.6  224.75005
100.5  262.6063
100.4  257.15763
100.3  230.01688
100.2  255.71431
100.1  276.6006
100  336.33558
99.9  334.04762
99.8  283.25467
99.7  234.37659
99.6  165.39275
99.5  104.5854
99.4  59.937908
99.3  53.24484
99.2  68.771126
99.1  61.719579
99  66.937093
98.9  54.345903
98.8  67.888814
98.7  57.372274
98.6  51.500223
98.5  53.22946
98.4  50.791506
98.3  56.595206
98.2  65.235524
98.1  56.50285
98  63.860938
97.9  61.498897
97.8  49.499362
97.7  57.996325
97.6  55.105107
97.5  58.62565
97.4  64.186577
97.3  61.944242
97.2  53.257801
97.1  56.425682
97  53.08939
96.9  54.670567
96.8  54.068207
96.7  66.841882
96.6  65.050458
96.5  67.350028
96.4  56.634004
96.3  54.587534
96.2  61.422397
96.1  59.966002
96  61.530104
95.9  53.85092
95.8  62.448318
95.7  61.539164
95.6  57.510507
95.5  57.868176
95.4  53.705148
95.3  51.576514
95.2  51.163123
95.1  55.448619
95  60.100794

