# Created by:        SpecsLab Prodigy, Version 4.50.2-r79252 
#
# XY-Serializer Export Settings:
#   Comment Prefix:           #
#   Output meta data:         yes
#   Energy Axis:              Binding Energy
#   Count Rate:               Counts per Second
#   Separate Scan Data:       no
#   Separate Channel Data:    no
#   External Channel Data:    yes
#   Transmission Function:    no
#   ErrorBar:                 no
#   Operation Results:        yes
#   Time Zone Format:         UTC
#
# Group:             Spectrum Group 55
#
# Region:            O1s
# Acquisition Date:  10/25/19 19:49:46 UTC
# Analysis Method:   XPS
# Analyzer:          Phoibos
# Analyzer Lens:     MediumArea:1.5kV
# Analyzer Slit:     5:7x20\B:open
# Scan Mode:         FixedAnalyzerTransmission
# Curves/Scan:       1
# Values/Curve:      491
# Dwell Time:        0.1
# Excitation Energy: 1486.71
# Binding Energy:    570
# Pass Energy:       10
# Bias Voltage:      90
# Detector Voltage:  1900
# Eff. Workfunction: 4.395
# Source:            Focus
# Comment:           
#
# Cycle: 0
# Number of Scans: 12
#
# Cycle: 0, Curve: 0
# Acquisition Date: 10/25/19 19:49:46 UTC
#
# ColumnLabels: energy counts/s
#
570  969.37728
569.9  1016.6414
569.8  1003.4971
569.7  999.28876
569.6  1024.9584
569.5  949.93218
569.4  986.18354
569.3  939.25753
569.2  995.87434
569.1  1002.775
569  1036.7199
568.9  1026.5718
568.8  1018.5764
568.7  1014.6613
568.6  1007.7918
568.5  993.12636
568.4  993.02325
568.3  969.19802
568.2  981.23586
568.1  1009.3731
568  1010.6805
567.9  983.16131
567.8  998.21435
567.7  985.77803
567.6  992.89301
567.5  1018.929
567.4  1009.0969
567.3  970.77096
567.2  988.17669
567.1  986.08318
567  1009.6958
566.9  1017.8612
566.8  1035.0917
566.7  1026.924
566.6  1044.2376
566.5  1029.068
566.4  1046.4506
566.3  1062.6372
566.2  1025.7898
566.1  1054.5786
566  1071.608
565.9  1054.9415
565.8  1083.6167
565.7  1023.1983
565.6  1060.369
565.5  1080.628
565.4  1034.4442
565.3  1026.9221
565.2  1043.1932
565.1  1119.1954
565  1078.4137
564.9  1077.0738
564.8  1069.4015
564.7  1104.1268
564.6  1110.0538
564.5  1073.8782
564.4  1044.8133
564.3  1084.5795
564.2  1106.2253
564.1  1103.1903
564  1095.6356
563.9  1141.7684
563.8  1119.854
563.7  1133.78
563.6  1090.1819
563.5  1079.3194
563.4  1156.76
563.3  1175.4232
563.2  1133.5344
563.1  1184.326
563  1158.9739
562.9  1153.4737
562.8  1138.6141
562.7  1200.4288
562.6  1186.1861
562.5  1175.6454
562.4  1186.0501
562.3  1159.8985
562.2  1163.8857
562.1  1187.86
562  1223.806
561.9  1204.8839
561.8  1245.9405
561.7  1204.8217
561.6  1230.5873
561.5  1225.3178
561.4  1240.823
561.3  1195.2731
561.2  1193.2824
561.1  1201.0557
561  1233.6723
560.9  1278.1588
560.8  1243.2053
560.7  1224.5828
560.6  1259.2451
560.5  1258.0999
560.4  1251.7536
560.3  1257.1605
560.2  1276.1208
560.1  1263.0392
560  1225.9069
559.9  1313.3474
559.8  1298.9949
559.7  1273.6053
559.6  1276.4297
559.5  1252.1848
559.4  1239.7578
559.3  1257.8762
559.2  1292.4939
559.1  1275.5167
559  1240.7881
558.9  1256.6746
558.8  1233.0584
558.7  1302.1339
558.6  1295.9178
558.5  1272.6425
558.4  1260.1251
558.3  1312.9312
558.2  1330.0158
558.1  1311.1786
558  1296.045
557.9  1304.8496
557.8  1338.7413
557.7  1356.397
557.6  1329.9792
557.5  1340.7498
557.4  1368.5515
557.3  1392.3579
557.2  1339.5964
557.1  1373.1174
557  1373.1398
556.9  1394.2759
556.8  1386.0305
556.7  1388.8113
556.6  1389.229
556.5  1416.6594
556.4  1409.5779
556.3  1347.7323
556.2  1378.6597
556.1  1422.7723
556  1397.0809
555.9  1336.8117
555.8  1318.6348
555.7  1337.0533
555.6  1350.9125
555.5  1253.8574
555.4  1266.8228
555.3  1302.7686
555.2  1288.1902
555.1  1213.7994
555  1268.1097
554.9  1220.9569
554.8  1232.1242
554.7  1193.4307
554.6  1197.1449
554.5  1229.4794
554.4  1204.5993
554.3  1173.1445
554.2  1208.2194
554.1  1211.8371
554  1183.5105
553.9  1140.8218
553.8  1183.3248
553.7  1088.9149
553.6  1111.3252
553.5  1089.0766
553.4  1096.2066
553.3  1096.0812
553.2  1087.8621
553.1  1082.9972
553  1016.2366
552.9  1040.3539
552.8  1077.5956
552.7  1019.7877
552.6  1021.6926
552.5  1003.2036
552.4  1031.63
552.3  1037.6642
552.2  1047.1593
552.1  989.11653
552  985.99079
551.9  964.04449
551.8  1007.4138
551.7  987.75098
551.6  989.18221
551.5  1006.5016
551.4  956.72834
551.3  970.54108
551.2  978.54369
551.1  942.17977
551  997.14622
550.9  986.04776
550.8  967.24673
550.7  909.9062
550.6  900.70952
550.5  931.24312
550.4  923.13875
550.3  944.05443
550.2  959.06871
550.1  955.01608
550  960.75502
549.9  972.84613
549.8  920.77853
549.7  956.65254
549.6  966.75692
549.5  936.66977
549.4  911.87518
549.3  941.14355
549.2  945.38813
549.1  963.22181
549  926.8
548.9  890.03914
548.8  912.0784
548.7  909.06962
548.6  930.70339
548.5  948.46811
548.4  907.65039
548.3  831.17335
548.2  871.13801
548.1  857.45826
548  842.4235
547.9  860.96008
547.8  870.3375
547.7  854.54806
547.6  851.33316
547.5  863.30358
547.4  831.76684
547.3  820.28828
547.2  847.2082
547.1  848.92984
547  819.72783
546.9  835.97722
546.8  860.31067
546.7  793.87301
546.6  801.19135
546.5  777.03699
546.4  732.67985
546.3  763.1716
546.2  770.48369
546.1  765.92703
546  771.80606
545.9  776.44776
545.8  773.33776
545.7  772.42544
545.6  756.89023
545.5  724.25021
545.4  723.5969
545.3  706.98954
545.2  689.86057
545.1  670.38819
545  694.87589
544.9  657.07423
544.8  649.2882
544.7  578.18221
544.6  575.1184
544.5  605.77913
544.4  588.23814
544.3  536.18403
544.2  553.50211
544.1  559.26522
544  523.75625
543.9  523.64504
543.8  520.52788
543.7  494.47738
543.6  515.37704
543.5  509.57124
543.4  500.15136
543.3  467.53478
543.2  477.93188
543.1  445.40961
543  451.54026
542.9  484.17839
542.8  459.04714
542.7  458.61371
542.6  464.34261
542.5  463.00958
542.4  444.57112
542.3  433.38812
542.2  417.56493
542.1  417.49227
542  428.42141
541.9  438.89736
541.8  440.95657
541.7  423.19785
541.6  408.10364
541.5  393.24102
541.4  396.38303
541.3  398.96235
541.2  398.5736
541.1  409.84195
541  431.79482
540.9  415.79209
540.8  428.25056
540.7  452.388
540.6  405.12737
540.5  455.56854
540.4  438.19514
540.3  432.28833
540.2  427.39579
540.1  422.82108
540  438.4517
539.9  420.09262
539.8  417.34846
539.7  406.28697
539.6  424.60142
539.5  413.95852
539.4  391.98157
539.3  411.36489
539.2  425.8145
539.1  427.29121
539  417.70588
538.9  419.2022
538.8  413.10047
538.7  429.23961
538.6  465.53092
538.5  442.13875
538.4  442.52718
538.3  428.01085
538.2  396.61371
538.1  438.60188
538  457.33297
537.9  460.46058
537.8  428.84603
537.7  468.08272
537.6  455.74283
537.5  449.77101
537.4  462.58098
537.3  461.98478
537.2  474.24694
537.1  472.4353
537  469.62965
536.9  496.71531
536.8  523.80946
536.7  557.04194
536.6  581.69845
536.5  618.75291
536.4  617.17541
536.3  704.44263
536.2  731.90569
536.1  855.1151
536  969.44588
535.9  1133.8878
535.8  1332.5694
535.7  1623.3655
535.6  1971.8944
535.5  2425.3249
535.4  3022.8211
535.3  3689.6367
535.2  4645.7062
535.1  5504.9997
535  6555.266
534.9  7842.3238
534.8  8928.9152
534.7  10105.229
534.6  11035.55
534.5  11695.579
534.4  12173.969
534.3  12324.577
534.2  12017.274
534.1  11418.163
534  10417.279
533.9  9358.7162
533.8  8240.0952
533.7  6999.6124
533.6  5682.2979
533.5  4556.471
533.4  3574.2248
533.3  2879.5633
533.2  2336.9351
533.1  1833.9291
533  1497.1943
532.9  1209.889
532.8  1032.3337
532.7  923.38741
532.6  830.87216
532.5  780.79911
532.4  731.9161
532.3  696.43305
532.2  652.32129
532.1  587.91694
532  582.28448
531.9  573.21561
531.8  552.87573
531.7  533.80684
531.6  502.3397
531.5  504.96937
531.4  483.60622
531.3  489.64813
531.2  496.14733
531.1  456.85363
531  449.92542
530.9  442.62658
530.8  419.1181
530.7  418.16546
530.6  431.31807
530.5  404.26599
530.4  392.24462
530.3  455.36918
530.2  440.5884
530.1  403.67987
530  420.38487
529.9  403.60758
529.8  427.60273
529.7  431.8254
529.6  425.85775
529.5  412.02154
529.4  386.11786
529.3  393.53963
529.2  377.76945
529.1  394.15073
529  401.15948
528.9  376.15915
528.8  383.66468
528.7  396.69559
528.6  372.43104
528.5  374.21177
528.4  387.72219
528.3  380.05711
528.2  377.21155
528.1  400.4524
528  408.54444
527.9  391.88296
527.8  375.26274
527.7  380.67743
527.6  380.84837
527.5  388.35297
527.4  391.21628
527.3  342.7196
527.2  386.8094
527.1  378.49307
527  365.27722
526.9  395.90529
526.8  391.3093
526.7  392.48478
526.6  367.9963
526.5  373.2031
526.4  377.89667
526.3  364.75363
526.2  367.11889
526.1  379.57334
526  366.15464
525.9  373.59433
525.8  385.70204
525.7  412.78035
525.6  404.33465
525.5  366.72349
525.4  379.65543
525.3  396.22149
525.2  373.59543
525.1  375.22673
525  392.56354
524.9  380.65938
524.8  369.14708
524.7  359.24655
524.6  377.12043
524.5  391.41997
524.4  353.54817
524.3  387.00868
524.2  385.73471
524.1  407.50774
524  368.1044
523.9  383.54676
523.8  365.244
523.7  386.13022
523.6  362.23217
523.5  366.09146
523.4  355.21438
523.3  380.63303
523.2  396.63278
523.1  375.18605
523  353.66895
522.9  359.35353
522.8  375.38355
522.7  362.79482
522.6  350.28003
522.5  390.75509
522.4  389.98088
522.3  365.45458
522.2  361.06489
522.1  357.28846
522  356.66779
521.9  381.29824
521.8  381.38741
521.7  367.32034
521.6  350.14338
521.5  353.74085
521.4  367.69744
521.3  371.73493
521.2  385.79037
521.1  369.94364
521  382.41308

