# Created by:        SpecsLab Prodigy, Version 4.50.2-r79252 
#
# XY-Serializer Export Settings:
#   Comment Prefix:           #
#   Output meta data:         yes
#   Energy Axis:              Binding Energy
#   Count Rate:               Counts per Second
#   Separate Scan Data:       no
#   Separate Channel Data:    no
#   External Channel Data:    yes
#   Transmission Function:    no
#   ErrorBar:                 no
#   Operation Results:        yes
#   Time Zone Format:         UTC
#
# Group:             Spectrum Group 35
#
# Region:            Si2p
# Acquisition Date:  10/31/19 01:34:36 UTC
# Analysis Method:   XPS
# Analyzer:          Phoibos
# Analyzer Lens:     MediumArea:1.5kV
# Analyzer Slit:     5:7x20\B:open
# Scan Mode:         FixedAnalyzerTransmission
# Curves/Scan:       1
# Values/Curve:      161
# Dwell Time:        0.1
# Excitation Energy: 1486.71
# Binding Energy:    108
# Pass Energy:       10
# Bias Voltage:      90
# Detector Voltage:  1900
# Eff. Workfunction: 4.395
# Source:            Focus
# Comment:           
#
# Cycle: 0
# Number of Scans: 15
#
# Cycle: 0, Curve: 0
# Acquisition Date: 10/31/19 01:34:36 UTC
#
# ColumnLabels: energy counts/s
#
108  78.328741
107.9  81.757587
107.8  82.66369
107.7  85.409399
107.6  98.119838
107.5  86.444799
107.4  79.884601
107.3  84.508481
107.2  92.721153
107.1  84.422057
107  77.189722
106.9  91.837851
106.8  88.411945
106.7  78.960245
106.6  92.312806
106.5  80.494981
106.4  86.331762
106.3  93.510483
106.2  99.316537
106.1  108.71667
106  125.43472
105.9  130.01661
105.8  150.61152
105.7  180.30171
105.6  242.13574
105.5  292.47761
105.4  359.13843
105.3  441.88701
105.2  545.54352
105.1  667.26991
105  769.75034
104.9  896.81313
104.8  1091.2115
104.7  1176.2424
104.6  1304.0527
104.5  1525.1329
104.4  1608.5309
104.3  1595.9933
104.2  1666.935
104.1  1651.176
104  1693.2605
103.9  1614.1737
103.8  1530.6097
103.7  1391.1178
103.6  1271.0749
103.5  1182.4923
103.4  978.32516
103.3  878.66314
103.2  840.97249
103.1  776.91508
103  693.46194
102.9  692.94243
102.8  686.2117
102.7  661.15345
102.6  655.95006
102.5  625.1729
102.4  572.25896
102.3  505.84709
102.2  459.30969
102.1  397.27159
102  302.19738
101.9  239.27189
101.8  211.19436
101.7  171.69525
101.6  137.51153
101.5  111.4869
101.4  108.73525
101.3  107.72929
101.2  94.058447
101.1  91.952432
101  89.156056
100.9  88.565031
100.8  92.900027
100.7  81.241435
100.6  88.110234
100.5  79.661005
100.4  81.814588
100.3  95.869106
100.2  81.911173
100.1  84.342878
100  92.838681
99.9  99.503292
99.8  94.000381
99.7  85.012825
99.6  91.646604
99.5  80.982747
99.4  79.401334
99.3  75.397014
99.2  64.593199
99.1  71.378063
99  83.564526
98.9  85.256533
98.8  77.528935
98.7  82.187742
98.6  62.339105
98.5  67.626445
98.4  83.204778
98.3  87.04739
98.2  78.050564
98.1  67.099004
98  68.048788
97.9  75.850076
97.8  69.20087
97.7  82.494411
97.6  87.052377
97.5  77.556884
97.4  59.247542
97.3  81.07927
97.2  81.193709
97.1  82.521716
97  77.523602
96.9  78.375445
96.8  77.116419
96.7  72.281223
96.6  59.916729
96.5  75.401771
96.4  74.561471
96.3  83.078315
96.2  80.883146
96.1  77.404771
96  82.830991
95.9  75.322211
95.8  71.579459
95.7  71.476767
95.6  80.973691
95.5  72.205152
95.4  75.830242
95.3  87.44121
95.2  75.227438
95.1  77.121253
95  76.831167
94.9  77.867074
94.8  80.230002
94.7  90.604135
94.6  81.590825
94.5  75.877501
94.4  77.799668
94.3  80.454251
94.2  64.438741
94.1  67.902145
94  78.577194
93.9  80.780081
93.8  86.013411
93.7  85.201141
93.6  81.694532
93.5  76.397396
93.4  82.523014
93.3  81.040527
93.2  69.576213
93.1  77.859367
93  80.98612
92.9  82.940882
92.8  79.974287
92.7  75.115111
92.6  79.028896
92.5  75.714096
92.4  69.453167
92.3  80.262895
92.2  95.978731
92.1  79.515253
92  71.862492

