# Created by:        SpecsLab Prodigy, Version 4.50.2-r79252 
#
# XY-Serializer Export Settings:
#   Comment Prefix:           #
#   Output meta data:         yes
#   Energy Axis:              Binding Energy
#   Count Rate:               Counts per Second
#   Separate Scan Data:       no
#   Separate Channel Data:    no
#   External Channel Data:    yes
#   Transmission Function:    no
#   ErrorBar:                 no
#   Operation Results:        yes
#   Time Zone Format:         UTC
#
# Group:             Spectrum Group 45
#
# Region:            Si2p
# Acquisition Date:  10/31/19 01:51:19 UTC
# Analysis Method:   XPS
# Analyzer:          Phoibos
# Analyzer Lens:     MediumArea:1.5kV
# Analyzer Slit:     5:7x20\B:open
# Scan Mode:         FixedAnalyzerTransmission
# Curves/Scan:       1
# Values/Curve:      161
# Dwell Time:        0.1
# Excitation Energy: 1486.71
# Binding Energy:    108
# Pass Energy:       10
# Bias Voltage:      90
# Detector Voltage:  1900
# Eff. Workfunction: 4.395
# Source:            Focus
# Comment:           
#
# Cycle: 0
# Number of Scans: 15
#
# Cycle: 0, Curve: 0
# Acquisition Date: 10/31/19 01:51:19 UTC
#
# ColumnLabels: energy counts/s
#
108  82.63428
107.9  72.458345
107.8  74.269268
107.7  66.947381
107.6  78.775204
107.5  83.18505
107.4  87.219823
107.3  79.701092
107.2  74.490975
107.1  75.445985
107  63.708131
106.9  81.083333
106.8  74.71569
106.7  74.330665
106.6  80.007999
106.5  80.746771
106.4  74.744548
106.3  75.508336
106.2  82.333508
106.1  98.812194
106  111.39748
105.9  104.7835
105.8  121.46262
105.7  154.60636
105.6  181.0296
105.5  207.25666
105.4  270.57443
105.3  340.19066
105.2  430.49974
105.1  514.46835
105  603.01492
104.9  728.57463
104.8  843.53808
104.7  941.51179
104.6  1032.3337
104.5  1090.1624
104.4  1152.6465
104.3  1259.4612
104.2  1277.1094
104.1  1247.6391
104  1221.5802
103.9  1216.9167
103.8  1183.1132
103.7  1074.4791
103.6  989.61606
103.5  878.32254
103.4  784.29997
103.3  773.47436
103.2  735.79062
103.1  701.8833
103  676.08068
102.9  634.24267
102.8  642.32511
102.7  630.24246
102.6  603.64138
102.5  564.44184
102.4  552.33774
102.3  492.9458
102.2  416.94976
102.1  335.0967
102  265.82379
101.9  217.95716
101.8  178.49482
101.7  138.4675
101.6  118.5452
101.5  107.68207
101.4  83.435759
101.3  90.332233
101.2  104.15619
101.1  76.042966
101  75.855619
100.9  80.321314
100.8  82.720453
100.7  68.893848
100.6  73.745075
100.5  85.40673
100.4  72.597962
100.3  60.70354
100.2  71.071512
100.1  68.053668
100  60.968747
99.9  88.518811
99.8  75.642095
99.7  77.439237
99.6  80.647196
99.5  73.727592
99.4  55.809207
99.3  72.225422
99.2  69.646864
99.1  64.201677
99  68.762325
98.9  77.618426
98.8  69.473043
98.7  79.448581
98.6  72.6226
98.5  69.068949
98.4  58.819572
98.3  67.77152
98.2  72.033407
98.1  72.404763
98  64.790979
97.9  77.442789
97.8  60.444947
97.7  71.897958
97.6  77.20497
97.5  69.10582
97.4  76.921957
97.3  73.401931
97.2  73.156972
97.1  74.011288
97  86.849292
96.9  68.840344
96.8  66.644895
96.7  62.428617
96.6  64.719552
96.5  74.230693
96.4  65.692352
96.3  67.779098
96.2  72.274181
96.1  76.073812
96  75.591515
95.9  66.675249
95.8  71.054903
95.7  69.416993
95.6  73.816831
95.5  68.376335
95.4  69.617792
95.3  61.386124
95.2  66.7334
95.1  74.568998
95  61.225211
94.9  72.572415
94.8  71.765584
94.7  71.460833
94.6  70.997671
94.5  69.427086
94.4  69.607813
94.3  54.949178
94.2  61.201838
94.1  67.186057
94  69.254091
93.9  74.995038
93.8  65.689343
93.7  73.218964
93.6  74.575299
93.5  69.819823
93.4  70.109392
93.3  54.66658
93.2  60.405197
93.1  72.821448
93  69.800453
92.9  79.556701
92.8  77.874481
92.7  73.619557
92.6  68.552845
92.5  75.53901
92.4  69.717541
92.3  65.587032
92.2  70.400396
92.1  69.299897
92  61.942556

